File: Experimento 4/Resultados Experimento 4-20210423/arquivos csv/açoRev.csv
index;Load(kN);Defor(mm);Stroke(mm);Time(s)
0;0;0;0;0
9;0.06;0.512;0.035;0.535
18;0.06;0.514;0.079;1.075
27;0.06;0.514;0.124;1.615
36;0.06;0.514;0.169;2.155
45;0.06;0.516;0.214;2.695
54;0.06;0.516;0.259;3.235
63;0.06;0.516;0.304;3.775
72;0.06;0.516;0.349;4.315
81;0.06;0.516;0.394;4.855
90;0.06;0.516;0.439;5.395
99;0.08;0.516;0.482;5.935
108;0.08;0.516;0.527;6.475
117;0.2;0.516;0.572;7.015
126;0.5;0.514;0.618;7.555
135;1;0.514;0.662;8.095
144;1.62;0.514;0.707;8.635
153;2.3;0.514;0.751;9.175
162;2.86;0.516;0.796;9.715
171;2.88;0.516;0.841;10.255
180;3.34;0.516;0.886;10.795
189;3.62;0.518;0.931;11.335
198;3.76;0.52;0.976;11.875
207;4.06;0.52;1.02;12.415
216;4.42;0.522;1.066;12.955
225;4.82;0.524;1.11;13.495
234;5.26;0.526;1.155;14.035
243;5.68;0.528;1.2;14.575
252;6.12;0.53;1.245;15.115
261;6.56;0.532;1.29;15.655
270;7;0.534;1.335;16.195
279;7.44;0.536;1.38;16.735
288;7.88;0.54;1.425;17.275
297;8.34;0.542;1.47;17.815
306;8.8;0.544;1.515;18.355
315;9.24;0.546;1.56;18.895
324;9.7;0.548;1.605;19.435
333;10.14;0.552;1.65;19.975
342;10.6;0.554;1.695;20.515
351;11.06;0.556;1.74;21.055
360;11.52;0.558;1.785;21.595
369;12;0.56;1.83;22.135
378;12.46;0.564;1.875;22.675
387;12.94;0.566;1.92;23.215
396;13.42;0.568;1.965;23.755
405;13.9;0.57;2.01;24.295
414;14.38;0.572;2.055;24.835
423;14.86;0.576;2.1;25.375
432;15.34;0.578;2.145;25.915
441;15.84;0.58;2.189;26.455
450;16.32;0.584;2.232;26.995
459;16.8;0.586;2.277;27.535
468;17.32;0.588;2.322;28.075
477;17.82;0.592;2.367;28.615
486;18.32;0.594;2.412;29.155
495;18.82;0.596;2.457;29.695
504;19.34;0.598;2.501;30.235
513;19.86;0.602;2.546;30.775
522;20.36;0.604;2.591;31.315
531;20.9;0.608;2.636;31.855
540;21.42;0.61;2.681;32.395
549;21.96;0.612;2.726;32.935
558;22.48;0.616;2.771;33.475
567;23;0.618;2.816;34.015
576;23.54;0.62;2.861;34.555
585;24.06;0.624;2.906;35.095
594;24.6;0.626;2.951;35.635
603;25.12;0.628;2.996;36.175
612;25.66;0.632;3.041;36.715
621;26.2;0.634;3.086;37.255
630;26.74;0.638;3.13;37.795
639;27.28;0.64;3.175;38.335
648;27.84;0.644;3.22;38.875
657;28.38;0.646;3.265;39.415
666;28.92;0.65;3.31;39.955
675;29.48;0.652;3.355;40.495
684;30.02;0.654;3.4;41.035
693;30.56;0.658;3.444;41.575
702;31.12;0.66;3.489;42.115
711;31.62;0.664;3.531;42.655
720;32.2;0.666;3.576;43.195
729;32.76;0.67;3.621;43.735
738;33.32;0.672;3.666;44.275
747;33.88;0.674;3.711;44.815
756;34.44;0.678;3.756;45.355
765;35;0.682;3.801;45.895
774;35.56;0.684;3.846;46.435
783;36.12;0.688;3.89;46.975
792;36.68;0.69;3.936;47.515
801;37.24;0.692;3.981;48.055
810;37.8;0.696;4.025;48.595
819;38.36;0.698;4.07;49.135
828;38.94;0.702;4.115;49.675
837;39.5;0.704;4.16;50.215
846;40.08;0.708;4.205;50.755
855;40.64;0.71;4.25;51.295
864;41.22;0.714;4.295;51.835
873;41.78;0.716;4.34;52.375
882;42.36;0.72;4.385;52.915
891;42.92;0.722;4.43;53.455
900;43.5;0.726;4.475;53.995
909;44.08;0.73;4.519;54.535
918;44.64;0.732;4.564;55.075
927;45.22;0.736;4.609;55.615
936;45.78;0.74;4.654;56.155
945;46.34;0.744;4.699;56.695
954;46.26;0.742;4.744;57.235
963;47.22;0.748;4.789;57.775
972;47.76;0.754;4.834;58.315
981;48.26;0.758;4.879;58.855
990;48.76;0.766;4.924;59.395
999;49.18;0.776;4.969;59.935
1008;49.34;0.796;5.014;60.475
1017;49.16;0.832;5.059;61.015
1026;49.16;0.872;5.104;61.555
1035;49.14;0.912;5.15;62.095
1044;49.14;0.954;5.195;62.635
1053;49.14;0.994;5.24;63.175
1062;49.28;1.034;5.285;63.715
1071;49.36;1.072;5.33;64.255
1080;49.46;1.11;5.375;64.795
1089;49.54;1.148;5.42;65.335
1098;49.62;1.184;5.466;65.875
1107;49.7;1.2262;5.511;66.415
1116;49.78;1.2712;5.556;66.955
1125;49.86;1.3162;5.601;67.495
1134;49.94;1.3612;5.646;68.035
1143;50;1.4062;5.691;68.575
1152;49.48;1.4087;5.694;69.115
1161;49.3;1.4087;5.694;69.655
1170;49.16;1.4099;5.695;70.195
1179;49.08;1.4099;5.695;70.735
1188;49.02;1.4099;5.695;71.275
1197;48.98;1.4099;5.695;71.815
1206;48.92;1.4099;5.695;72.355
1215;48.9;1.4099;5.695;72.895
1224;48.86;1.4099;5.695;73.435
1233;48.82;1.4099;5.695;73.975
1242;48.8;1.4099;5.695;74.515
1251;48.78;1.4099;5.695;75.055
1260;48.76;1.4099;5.695;75.595
1269;48.74;1.4099;5.695;76.135
1278;48.72;1.4099;5.695;76.675
1287;48.7;1.4099;5.695;77.215
1296;48.68;1.4099;5.695;77.755
1305;48.66;1.4099;5.695;78.295
1314;48.66;1.4099;5.695;78.835
1323;48.64;1.4099;5.695;79.375
1332;48.62;1.4099;5.695;79.915
1341;48.62;1.4099;5.695;80.455
1350;49.8;1.4474;5.733;80.995
1359;50.22;1.4924;5.777;81.535
1368;50.3;1.5374;5.822;82.075
1377;50.36;1.5824;5.867;82.615
1386;50.4;1.6287;5.914;83.155
1395;50.46;1.6737;5.959;83.695
1404;50.52;1.7187;6.004;84.235
1413;50.58;1.7637;6.049;84.775
1422;50.64;1.8099;6.095;85.315
1431;50.7;1.8549;6.14;85.855
1440;50.78;1.8987;6.184;86.395
1449;50.86;1.9437;6.229;86.935
1458;50.92;1.9899;6.275;87.475
1467;50.98;2.0349;6.32;88.015
1476;51.06;2.0799;6.365;88.555
1485;51.14;2.1249;6.41;89.095
1494;51.2;2.1699;6.455;89.635
1503;51.28;2.2149;6.5;90.175
1512;51.34;2.2612;6.546;90.715
1521;51.4;2.3062;6.591;91.255
1530;51.48;2.3512;6.636;91.795
1539;51.54;2.3962;6.681;92.335
1548;51.6;2.4412;6.726;92.875
1557;51.66;2.4862;6.771;93.415
1566;51.72;2.5324;6.817;93.955
1575;51.78;2.5774;6.862;94.495
1584;51.84;2.6224;6.907;95.035
1593;51.9;2.6674;6.952;95.575
1602;51.96;2.7124;6.997;96.115
1611;52;2.7574;7.043;96.655
1620;52.06;2.8024;7.087;97.195
1629;52.12;2.8474;7.132;97.735
1638;52.16;2.8924;7.177;98.275
1647;52.2;2.9374;7.222;98.815
1656;52.24;2.9824;7.267;99.355
1665;52.3;3.0287;7.314;99.895
1674;52.34;3.0737;7.359;100.435
1683;52.38;3.1174;7.402;100.975
1692;52.42;3.1624;7.447;101.515
1701;52.44;3.2087;7.494;102.055
1710;52.48;3.2537;7.539;102.595
1719;52.52;3.2987;7.584;103.135
1728;52.54;3.3437;7.629;103.675
1737;52.58;3.3887;7.674;104.215
1746;52.6;3.4337;7.719;104.755
1755;52.62;3.4787;7.764;105.295
1764;52.66;3.5237;7.809;105.835
1773;52.68;3.5699;7.855;106.375
1782;52.68;3.6149;7.9;106.915
1791;52.7;3.6599;7.945;107.455
1800;52.72;3.7049;7.99;107.995
1809;52.74;3.7499;8.035;108.535
1818;52.74;3.7949;8.08;109.075
1827;52.76;3.8399;8.125;109.615
1836;52.76;3.8849;8.17;110.155
1845;52.78;3.9312;8.216;110.695
1854;52.76;3.9749;8.26;111.235
1863;52.78;4.0212;8.306;111.775
1872;52.76;4.0649;8.35;112.315
1881;52.76;4.1112;8.396;112.855
1890;52.76;4.1562;8.441;113.395
1899;52.76;4.2012;8.486;113.935
1908;52.74;4.2462;8.531;114.475
1917;52.72;4.2912;8.576;115.015
1926;52.7;4.3362;8.621;115.555
1935;52.68;4.3812;8.666;116.095
1944;52.66;4.4262;8.711;116.635
1953;52.62;4.4724;8.757;117.175
1962;52.58;4.5174;8.802;117.715
1971;52.54;4.5624;8.847;118.255
1980;52.46;4.6074;8.892;118.795
1989;52.4;4.6524;8.938;119.335
1998;52.32;4.6974;8.983;119.875
2007;52.22;4.7424;9.028;120.415
2016;52.12;4.7887;9.074;120.955
2025;51.98;4.8337;9.119;121.495
2034;51.82;4.8799;9.165;122.035
2043;51.8;4.9249;9.21;122.575
2052;51.62;4.9699;9.255;123.115
2061;51.46;5.0149;9.3;123.655
2070;51.3;5.0612;9.346;124.195
2079;51.12;5.1049;9.39;124.735
2088;50.94;5.1499;9.435;125.275
2097;50.74;5.1949;9.48;125.815
2106;50.56;5.2412;9.526;126.355
2115;50.36;5.2862;9.571;126.895
2124;50.18;5.3312;9.616;127.435
2133;49.98;5.3762;9.661;127.975
2142;49.78;5.4212;9.706;128.515
2151;49.58;5.4662;9.751;129.055
2160;49.36;5.5112;9.796;129.595
2169;49.16;5.5562;9.841;130.135
2178;48.94;5.6024;9.887;130.675
2187;48.72;5.6462;9.931;131.215
2196;48.5;5.6924;9.977;131.755
2205;48.28;5.7374;10.023;132.295
2214;48.06;5.7824;10.068;132.835
2223;47.82;5.8274;10.113;133.375
2232;47.6;5.8737;10.159;133.915
2241;47.36;5.9187;10.204;134.455
2250;47.12;5.9637;10.249;134.995
2259;46.88;6.0087;10.294;135.535
2268;46.64;6.0537;10.339;136.075
2277;46.38;6.0987;10.384;136.615
2286;46.14;6.1437;10.429;137.155
2295;45.88;6.1899;10.475;137.695
2304;45.62;6.2349;10.52;138.235
2313;45.34;6.2799;10.565;138.775
2322;45.1;6.3249;10.61;139.315
2331;44.82;6.3712;10.656;139.855
2340;44.54;6.4162;10.701;140.395
2349;44.26;6.4612;10.746;140.935
2358;43.98;6.5062;10.791;141.475
2367;43.68;6.5512;10.836;142.015
2376;43.4;6.5974;10.882;142.555
2385;43.1;6.6424;10.927;143.095
2394;42.78;6.6874;10.972;143.635
2403;42.46;6.7324;11.017;144.175
2412;42.14;6.7787;11.064;144.715
2421;41.82;6.8237;11.109;145.255
2430;41.5;6.8674;11.153;145.795
2439;41.16;6.9124;11.197;146.335
2448;40.82;6.9574;11.242;146.875
2457;40.48;7.0024;11.287;147.415
2466;40.12;7.0487;11.334;147.955
2475;39.76;7.0937;11.379;148.495
2484;39.38;7.1387;11.424;149.035
2493;39;7.1837;11.469;149.575
2502;38.62;7.2287;11.514;150.115
2511;38.22;7.2737;11.559;150.655
2520;37.82;7.3199;11.605;151.195
2529;37.4;7.3649;11.65;151.735
2538;36.98;7.4099;11.695;152.275
2547;36.54;7.4549;11.74;152.815
2556;36.1;7.5012;11.786;153.355
2565;35.64;7.5449;11.83;153.895
2574;35.18;7.5912;11.876;154.435
2583;34.7;7.6362;11.921;154.975
2592;34.2;7.6812;11.966;155.515
2601;0;7.7262;12.011;156.055
2610;0.02;7.7712;12.056;156.595
2619;0.02;7.8162;12.101;157.135
2628;0.02;7.8599;12.145;157.675
2637;0.02;7.9049;12.19;158.215
2646;0;7.9499;12.235;158.755