File: Experimento 4/Resultados Experimento 4-20210423/arquivos csv/açoTemp.csv
index;Load(kN);Defor(mm);Stroke(mm);Time(s)
0;0;0;0;0
6;0;0.0137;0.014;0.355
12;0.04;0.0437;0.044;0.715
18;0.16;0.0737;0.074;1.075
24;0.16;0.1037;0.104;1.435
30;0.18;0.1337;0.134;1.795
36;0.58;0.1637;0.164;2.155
42;0.88;0.1937;0.194;2.515
48;1.04;0.2237;0.224;2.875
54;1.1;0.2537;0.254;3.235
60;1.14;0.2837;0.284;3.595
66;1.18;0.3137;0.314;3.955
72;1.22;0.3438;0.344;4.315
78;1.26;0.3725;0.373;4.675
84;1.3;0.4025;0.403;5.035
90;1.34;0.4338;0.434;5.395
96;1.38;0.4625;0.462;5.755
102;1.42;0.4925;0.492;6.115
108;1.44;0.5225;0.522;6.475
114;1.46;0.5525;0.553;6.835
120;1.5;0.5825;0.582;7.195
126;1.52;0.6125;0.613;7.555
132;1.56;0.6425;0.642;7.915
138;1.58;0.6725;0.673;8.275
144;1.6;0.7025;0.702;8.635
150;1.64;0.7325;0.732;8.995
156;1.66;0.7612;0.761;9.355
162;1.68;0.7912;0.791;9.715
168;1.72;0.8212;0.821;10.075
174;1.74;0.8512;0.851;10.435
180;1.78;0.8825;0.882;10.795
186;1.8;0.9112;0.911;11.155
192;1.84;0.9412;0.941;11.515
198;1.86;0.9712;0.971;11.875
204;1.9;1.0013;1.001;12.235
210;1.94;1.0312;1.031;12.595
216;1.98;1.0612;1.061;12.955
222;2.02;1.0912;1.091;13.315
228;2.06;1.1213;1.121;13.675
234;2.1;1.1513;1.151;14.035
240;2.14;1.1812;1.181;14.395
246;2.18;1.2112;1.211;14.755
252;2.22;1.2412;1.241;15.115
258;2.26;1.2725;1.272;15.475
264;2.3;1.3025;1.303;15.835
270;2.34;1.3325;1.332;16.195
276;2.38;1.3612;1.361;16.555
282;2.42;1.3925;1.392;16.915
288;2.44;1.4225;1.423;17.275
294;2.5;1.4525;1.452;17.635
300;2.54;1.4825;1.482;17.995
306;2.58;1.5125;1.512;18.355
312;2.62;1.5425;1.543;18.715
318;2.66;1.5725;1.572;19.075
324;2.72;1.6025;1.602;19.435
330;2.76;1.6325;1.632;19.795
336;2.8;1.6625;1.662;20.155
342;2.86;1.6925;1.692;20.515
348;2.9;1.7225;1.722;20.875
354;2.96;1.7525;1.752;21.235
360;3.02;1.7825;1.782;21.595
366;3.08;1.8125;1.812;21.955
372;3.16;1.8438;1.844;22.315
378;3.24;1.8737;1.874;22.675
384;3.32;1.9037;1.904;23.035
390;3.4;1.9337;1.934;23.395
396;3.48;1.9638;1.964;23.755
402;3.56;1.9937;1.994;24.115
408;3.66;2.0238;2.024;24.475
414;3.74;2.0538;2.054;24.835
420;3.84;2.0838;2.084;25.195
426;3.94;2.115;2.115;25.555
432;4.02;2.145;2.145;25.915
438;4.12;2.175;2.175;26.275
444;4.24;2.205;2.205;26.635
450;4.34;2.235;2.235;26.995
456;4.46;2.265;2.265;27.355
462;4.56;2.295;2.295;27.715
468;4.68;2.325;2.325;28.075
474;4.8;2.355;2.355;28.435
480;4.92;2.385;2.385;28.795
486;5.04;2.415;2.415;29.155
492;5.16;2.445;2.445;29.515
498;5.28;2.475;2.475;29.875
504;5.42;2.505;2.505;30.235
510;5.54;2.535;2.535;30.595
516;5.68;2.565;2.565;30.955
522;5.8;2.5963;2.596;31.315
528;5.94;2.6263;2.626;31.675
534;6.08;2.6562;2.656;32.035
540;6.22;2.6862;2.686;32.395
546;6.36;2.7162;2.716;32.755
552;6.5;2.7462;2.746;33.115
558;6.64;2.7762;2.776;33.475
564;6.78;2.8062;2.806;33.835
570;6.94;2.8362;2.836;34.195
576;7.08;2.8663;2.866;34.555
582;7.24;2.8963;2.896;34.915
588;7.4;2.9262;2.926;35.275
594;7.56;2.9562;2.956;35.635
600;7.72;2.9862;2.986;35.995
606;7.9;3.0162;3.016;36.355
612;8.06;3.0462;3.046;36.715
618;8.18;3.0762;3.076;37.075
624;8.36;3.1063;3.106;37.435
630;8.56;3.1363;3.136;37.795
636;8.74;3.1662;3.166;38.155
642;8.92;3.1975;3.197;38.515
648;9.12;3.2275;3.227;38.875
654;9.32;3.2575;3.257;39.235
660;9.52;3.2875;3.287;39.595
666;9.72;3.3175;3.317;39.955
672;9.94;3.3475;3.347;40.315
678;10.14;3.3775;3.377;40.675
684;10.34;3.4075;3.408;41.035
690;10.56;3.4375;3.438;41.395
696;10.78;3.4675;3.467;41.755
702;10.96;3.495;3.495;42.115
708;11.18;3.525;3.525;42.475
714;11.4;3.555;3.555;42.835
720;11.62;3.585;3.585;43.195
726;11.84;3.615;3.615;43.555
732;12.06;3.645;3.645;43.915
738;12.28;3.675;3.675;44.275
744;12.52;3.705;3.705;44.635
750;12.74;3.735;3.735;44.995
756;12.96;3.765;3.765;45.355
762;13.2;3.795;3.795;45.715
768;13.42;3.825;3.825;46.075
774;13.66;3.855;3.855;46.435
780;13.88;3.885;3.885;46.795
786;14.12;3.915;3.915;47.155
792;14.36;3.945;3.945;47.515
798;14.6;3.975;3.975;47.875
804;14.84;4.005;4.005;48.235
810;15.08;4.0363;4.036;48.595
816;15.32;4.0662;4.066;48.955
822;15.56;4.0963;4.096;49.315
828;15.8;4.1262;4.126;49.675
834;16.04;4.1562;4.156;50.035
840;16.28;4.1862;4.186;50.395
846;16.52;4.2162;4.216;50.755
852;16.78;4.2462;4.246;51.115
858;17.02;4.2762;4.276;51.475
864;17.28;4.3063;4.306;51.835
870;17.52;4.3362;4.336;52.195
876;17.76;4.3663;4.366;52.555
882;18.02;4.3962;4.396;52.915
888;18.28;4.4262;4.426;53.275
894;18.52;4.4562;4.456;53.635
900;18.78;4.4875;4.487;53.995
906;19.04;4.5175;4.517;54.355
912;19.28;4.5475;4.548;54.715
918;19.54;4.5775;4.577;55.075
924;19.8;4.6075;4.608;55.435
930;20.06;4.6375;4.637;55.795
936;20.3;4.6675;4.668;56.155
942;20.58;4.6975;4.697;56.515
948;20.84;4.7275;4.727;56.875
954;21.1;4.7575;4.757;57.235
960;21.36;4.7875;4.787;57.595
966;21.62;4.8175;4.818;57.955
972;21.88;4.8475;4.847;58.315
978;22.14;4.8775;4.878;58.675
984;22.4;4.9075;4.907;59.035
990;22.68;4.9375;4.938;59.395
996;22.94;4.9675;4.967;59.755
1002;23.2;4.9975;4.997;60.115
1008;23.48;5.0275;5.027;60.475
1014;23.74;5.0575;5.057;60.835
1020;24;5.0875;5.088;61.195
1026;24.28;5.1175;5.117;61.555
1032;24.54;5.1487;5.149;61.915
1038;24.82;5.1788;5.179;62.275
1044;25.08;5.2087;5.209;62.635
1050;25.34;5.2387;5.239;62.995
1056;25.62;5.2687;5.269;63.355
1062;25.9;5.2987;5.299;63.715
1068;26.16;5.3287;5.329;64.075
1074;26.44;5.3587;5.359;64.435
1080;26.7;5.3888;5.389;64.795
1086;26.98;5.4187;5.419;65.155
1092;27.26;5.4488;5.449;65.515
1098;27.52;5.4787;5.479;65.875
1104;27.8;5.5087;5.509;66.235
1110;28.08;5.5387;5.539;66.595
1116;28.36;5.5687;5.569;66.955
1122;28.64;5.5987;5.599;67.315
1128;28.92;5.6287;5.629;67.675
1134;29.18;5.6588;5.659;68.035
1140;29.46;5.6887;5.689;68.395
1146;29.74;5.7188;5.719;68.755
1152;30.02;5.7487;5.749;69.115
1158;30.3;5.7787;5.779;69.475
1164;30.58;5.8087;5.809;69.835
1170;30.86;5.8387;5.839;70.195
1176;31.14;5.8688;5.869;70.555
1182;31.42;5.8987;5.899;70.915
1188;31.7;5.9288;5.929;71.275
1194;31.98;5.9587;5.959;71.635
1200;32.26;5.9887;5.989;71.995
1206;32.54;6.0187;6.019;72.355
1212;32.82;6.0487;6.049;72.715
1218;33.1;6.0787;6.079;73.075
1224;33.38;6.1087;6.109;73.435
1230;33.66;6.1388;6.139;73.795
1236;33.94;6.1687;6.169;74.155
1242;34.22;6.1988;6.199;74.515
1248;34.5;6.2275;6.227;74.875
1254;34.8;6.2575;6.257;75.235
1260;35.08;6.2875;6.287;75.595
1266;35.34;6.3175;6.317;75.955
1272;35.62;6.3475;6.347;76.315
1278;35.92;6.3775;6.378;76.675
1284;36.2;6.4075;6.407;77.035
1290;36.48;6.4375;6.438;77.395
1296;36.76;6.4675;6.467;77.755
1302;37.04;6.4975;6.497;78.115
1308;37.32;6.5275;6.527;78.475
1314;37.6;6.5575;6.557;78.835
1320;37.9;6.5875;6.587;79.195
1326;38.18;6.6175;6.617;79.555
1332;38.46;6.6475;6.648;79.915
1338;38.74;6.6775;6.677;80.275
1344;39.02;6.7075;6.707;80.635
1350;39.32;6.7375;6.737;80.995
1356;39.6;6.7675;6.767;81.355
1362;39.88;6.7975;6.797;81.715
1368;40.18;6.8275;6.827;82.075
1374;40.46;6.8575;6.858;82.435
1380;40.74;6.8875;6.887;82.795
1386;41.02;6.9162;6.916;83.155
1392;41.3;6.9462;6.946;83.515
1398;41.58;6.9762;6.976;83.875
1404;41.88;7.0062;7.006;84.235
1410;42.16;7.0362;7.036;84.595
1416;42.44;7.0662;7.066;84.955
1422;42.74;7.0963;7.096;85.315
1428;43.02;7.1262;7.126;85.675
1434;43.3;7.1562;7.156;86.035
1440;43.6;7.1862;7.186;86.395
1446;43.88;7.2162;7.216;86.755
1452;44.18;7.2462;7.246;87.115
1458;44.46;7.2762;7.276;87.475
1464;44.76;7.3062;7.306;87.835
1470;45.04;7.3362;7.336;88.195
1476;45.32;7.3663;7.366;88.555
1482;45.6;7.3962;7.396;88.915
1488;45.88;7.4262;7.426;89.275
1494;46.18;7.4562;7.456;89.635
1500;46.46;7.4862;7.486;89.995
1506;46.76;7.5162;7.516;90.355
1512;47.04;7.5462;7.546;90.715
1518;47.34;7.5762;7.576;91.075
1524;47.62;7.6062;7.606;91.435
1530;47.9;7.6363;7.636;91.795
1536;48.2;7.6662;7.666;92.155
1542;48.48;7.6962;7.696;92.515
1548;48.76;7.7262;7.726;92.875
1554;33.6;7.785;7.785;93.235
1560;0.1;7.8038;7.804;93.595
1566;0.1;7.8337;7.834;93.955
1572;0.1;7.8637;7.864;94.315
1578;0.1;7.8925;7.892;94.675
1584;0.1;7.9225;7.922;95.035
1590;0.1;7.9537;7.954;95.395
1596;0.1;7.9825;7.982;95.755
1602;0.1;8.0138;8.014;96.115
1608;0.1;8.0437;8.044;96.475
1614;0.1;8.0725;8.073;96.835
1620;0.1;8.1025;8.102;97.195
1626;0.1;8.1325;8.132;97.555
1632;0.1;8.1625;8.162;97.915
1638;0.1;8.1925;8.193;98.275
1640;0.1;8.2025;8.202;98.395