File: Experimento 4/Resultados Experimento 4-20210423/arquivos txt/AluminioSolubilizado.txt
0
Diameter:	   8.00
   1.00
Area:	  50.2655
GaugeLength:	  50.00
2009-1-1
al solu
001
DataNumber:	3395
index	Load(kN)	Defor(mm)	Stroke(mm)	Time(s)
    0	  0.0000	  0.0000	   0.000	   0.000
   15	  0.1600	  0.0020	   0.059	   0.895
   30	  0.3800	  0.0080	   0.134	   1.795
   45	  0.4600	  0.0120	   0.206	   2.695
   60	  0.5400	  0.0140	   0.281	   3.595
   75	  0.6600	  0.0160	   0.356	   4.495
   90	  0.7600	  0.0180	   0.433	   5.395
  105	  0.8800	  0.0200	   0.506	   6.295
  120	  0.9800	  0.0220	   0.581	   7.195
  135	  1.0800	  0.0240	   0.656	   8.095
  150	  1.2000	  0.0260	   0.731	   8.995
  165	  1.3200	  0.0280	   0.805	   9.895
  180	  1.4400	  0.0300	   0.881	  10.795
  195	  1.5800	  0.0300	   0.955	  11.695
  210	  1.7200	  0.0320	   1.031	  12.595
  225	  1.8600	  0.0360	   1.105	  13.495
  240	  2.0200	  0.0380	   1.180	  14.395
  255	  2.2000	  0.0400	   1.255	  15.295
  270	  2.3800	  0.0440	   1.330	  16.195
  285	  2.5800	  0.0460	   1.405	  17.095
  300	  2.7800	  0.0500	   1.480	  17.995
  315	  3.0000	  0.0540	   1.555	  18.895
  330	  3.2000	  0.0600	   1.629	  19.795
  345	  3.4400	  0.0640	   1.705	  20.695
  360	  3.6800	  0.0700	   1.780	  21.595
  375	  3.9200	  0.0760	   1.855	  22.495
  390	  4.1600	  0.0820	   1.930	  23.395
  405	  4.3800	  0.0920	   2.005	  24.295
  420	  4.5800	  0.1120	   2.080	  25.195
  435	  4.7600	  0.1400	   2.155	  26.095
  450	  4.9000	  0.1720	   2.230	  26.995
  465	  5.0400	  0.2080	   2.305	  27.895
  480	  5.1600	  0.2440	   2.380	  28.795
  495	  5.2600	  0.2840	   2.455	  29.695
  510	  5.3800	  0.3260	   2.531	  30.595
  525	  5.4800	  0.3660	   2.606	  31.495
  540	  5.6000	  0.4080	   2.681	  32.395
  555	  5.7000	  0.4520	   2.756	  33.295
  570	  5.8000	  0.4940	   2.832	  34.195
  585	  5.9000	  0.5380	   2.908	  35.095
  600	  6.0000	  0.5820	   2.982	  35.995
  615	  6.1000	  0.6260	   3.057	  36.895
  630	  6.1800	  0.6700	   3.132	  37.795
  645	  6.2800	  0.7160	   3.207	  38.695
  660	  6.3800	  0.7600	   3.283	  39.595
  675	  6.4600	  0.8060	   3.357	  40.495
  690	  6.5600	  0.8500	   3.434	  41.395
  705	  6.6400	  0.8960	   3.507	  42.295
  720	  6.7400	  0.9420	   3.582	  43.195
  735	  6.8200	  0.9880	   3.659	  44.095
  750	  6.9000	  1.0546	   3.734	  44.995
  765	  6.9800	  1.1283	   3.807	  45.895
  780	  6.9600	  1.1933	   3.872	  46.795
  795	  6.8000	  1.1933	   3.872	  47.695
  810	  6.7800	  1.1933	   3.872	  48.595
  825	  6.7600	  1.1933	   3.872	  49.495
  840	  6.7400	  1.1933	   3.872	  50.395
  855	  6.7400	  1.1933	   3.872	  51.295
  870	  6.7200	  1.1933	   3.872	  52.195
  885	  6.7200	  1.1933	   3.872	  53.095
  900	  6.7200	  1.1933	   3.872	  53.995
  915	  6.7200	  1.1933	   3.872	  54.895
  930	  6.7000	  1.1933	   3.872	  55.795
  945	  6.7000	  1.1933	   3.872	  56.695
  960	  6.7000	  1.1946	   3.874	  57.595
  975	  6.7000	  1.1946	   3.874	  58.495
  990	  6.7000	  1.1946	   3.874	  59.395
 1005	  6.7000	  1.1946	   3.874	  60.295
 1020	  6.7000	  1.1946	   3.874	  61.195
 1035	  6.6800	  1.1946	   3.874	  62.095
 1050	  6.6800	  1.1946	   3.874	  62.995
 1065	  6.6800	  1.1946	   3.874	  63.895
 1080	  6.6800	  1.1946	   3.874	  64.795
 1095	  6.6800	  1.1946	   3.874	  65.695
 1110	  6.6800	  1.1946	   3.874	  66.595
 1125	  6.6800	  1.1946	   3.874	  67.495
 1140	  6.6800	  1.1946	   3.874	  68.395
 1155	  6.6800	  1.1946	   3.874	  69.295
 1170	  6.6800	  1.1946	   3.874	  70.195
 1185	  7.3400	  1.2608	   3.940	  71.095
 1200	  7.5200	  1.3358	   4.015	  71.995
 1215	  7.4200	  1.4108	   4.090	  72.895
 1230	  7.4200	  1.4858	   4.165	  73.795
 1245	  7.4200	  1.5608	   4.240	  74.695
 1260	  7.4400	  1.6358	   4.315	  75.595
 1275	  7.4400	  1.7108	   4.390	  76.495
 1290	  7.7000	  1.7858	   4.465	  77.395
 1305	  7.7600	  1.8608	   4.540	  78.295
 1320	  7.7800	  1.9358	   4.615	  79.195
 1335	  7.8000	  2.0121	   4.691	  80.095
 1350	  7.9400	  2.0858	   4.765	  80.995
 1365	  8.0600	  2.1608	   4.840	  81.895
 1380	  8.0800	  2.2358	   4.915	  82.795
 1395	  8.1000	  2.3121	   4.991	  83.695
 1410	  8.1200	  2.3871	   5.066	  84.595
 1425	  8.2200	  2.4621	   5.141	  85.495
 1440	  8.3600	  2.5371	   5.216	  86.395
 1455	  8.2800	  2.6121	   5.291	  87.295
 1470	  8.4000	  2.6871	   5.366	  88.195
 1485	  8.4400	  2.7633	   5.443	  89.095
 1500	  8.5600	  2.8383	   5.517	  89.995
 1515	  8.5800	  2.9133	   5.592	  90.895
 1530	  8.6400	  2.9883	   5.668	  91.795
 1545	  8.7000	  3.0633	   5.742	  92.695
 1560	  8.7800	  3.1396	   5.819	  93.595
 1575	  8.7200	  3.2146	   5.894	  94.495
 1590	  8.8000	  3.2896	   5.969	  95.395
 1605	  8.8800	  3.3646	   6.044	  96.295
 1620	  8.9200	  3.4408	   6.120	  97.195
 1635	  9.0400	  3.5158	   6.195	  98.095
 1650	  9.1200	  3.5908	   6.270	  98.995
 1665	  9.0600	  3.6646	   6.344	  99.895
 1680	  9.0800	  3.7396	   6.419	 100.795
 1695	  9.1000	  3.8146	   6.494	 101.695
 1710	  9.1200	  3.8908	   6.570	 102.595
 1725	  9.3000	  3.9658	   6.645	 103.495
 1740	  9.2400	  4.0408	   6.720	 104.395
 1755	  9.3200	  4.1158	   6.795	 105.295
 1770	  9.3600	  4.1921	   6.871	 106.195
 1785	  9.3800	  4.2671	   6.946	 107.095
 1800	  9.4000	  4.3421	   7.021	 107.995
 1815	  9.4800	  4.4171	   7.096	 108.895
 1830	  9.5400	  4.4933	   7.172	 109.795
 1845	  9.5800	  4.5683	   7.247	 110.695
 1860	  9.6200	  4.6433	   7.322	 111.595
 1875	  9.6400	  4.7183	   7.398	 112.495
 1890	  9.5000	  4.7946	   7.474	 113.395
 1905	  9.6000	  4.8696	   7.549	 114.295
 1920	  9.6600	  4.9446	   7.624	 115.195
 1935	  9.6800	  5.0196	   7.699	 116.095
 1950	  9.7200	  5.0958	   7.775	 116.995
 1965	  9.8400	  5.1708	   7.850	 117.895
 1980	  9.8800	  5.2458	   7.925	 118.795
 1995	  9.9000	  5.3208	   8.000	 119.695
 2010	  9.8600	  5.3958	   8.075	 120.595
 2025	  9.8000	  5.4721	   8.151	 121.495
 2040	  9.7800	  5.5446	   8.224	 122.395
 2055	  9.8600	  5.6196	   8.299	 123.295
 2070	  9.9400	  5.6946	   8.374	 124.195
 2085	  9.9800	  5.7708	   8.450	 125.095
 2100	 10.0200	  5.8458	   8.525	 125.995
 2115	 10.0600	  5.9208	   8.600	 126.895
 2130	 10.0800	  5.9971	   8.676	 127.795
 2145	 10.1200	  6.0721	   8.751	 128.695
 2160	 10.1400	  6.1471	   8.826	 129.595
 2175	 10.1400	  6.2233	   8.903	 130.495
 2190	 10.1400	  6.2983	   8.977	 131.395
 2205	 10.0000	  6.3733	   9.052	 132.295
 2220	 10.0600	  6.4483	   9.127	 133.195
 2235	 10.0800	  6.5246	   9.204	 134.095
 2250	 10.0800	  6.5996	   9.279	 134.995
 2265	 10.1600	  6.6746	   9.354	 135.895
 2280	 10.2600	  6.7496	   9.429	 136.795
 2295	 10.3200	  6.8258	   9.505	 137.695
 2310	 10.3400	  6.9008	   9.580	 138.595
 2325	 10.3400	  6.9758	   9.655	 139.495
 2340	 10.3400	  7.0521	   9.731	 140.395
 2355	 10.4000	  7.1271	   9.806	 141.295
 2370	 10.2000	  7.2033	   9.882	 142.195
 2385	 10.2200	  7.2783	   9.957	 143.095
 2400	 10.2400	  7.3533	  10.032	 143.995
 2415	 10.2600	  7.4296	  10.109	 144.895
 2430	 10.2800	  7.5046	  10.184	 145.795
 2445	 10.2800	  7.5796	  10.259	 146.695
 2460	 10.3000	  7.6558	  10.335	 147.595
 2475	 10.3200	  7.7308	  10.410	 148.495
 2490	 10.3200	  7.8058	  10.485	 149.395
 2505	 10.3400	  7.8821	  10.561	 150.295
 2520	 10.3600	  7.9571	  10.636	 151.195
 2535	 10.4000	  8.0321	  10.711	 152.095
 2550	 10.4200	  8.1083	  10.787	 152.995
 2565	 10.4000	  8.1833	  10.863	 153.895
 2580	 10.3600	  8.2583	  10.938	 154.795
 2595	 10.3600	  8.3346	  11.014	 155.695
 2610	 10.3600	  8.4096	  11.089	 156.595
 2625	 10.3600	  8.4846	  11.164	 157.495
 2640	 10.3800	  8.5608	  11.240	 158.395
 2655	 10.3800	  8.6358	  11.315	 159.295
 2670	 10.3800	  8.7096	  11.389	 160.195
 2685	 10.3800	  8.7846	  11.464	 161.095
 2700	 10.3800	  8.8596	  11.539	 161.995
 2715	 10.3800	  8.9358	  11.615	 162.895
 2730	 10.3600	  9.0108	  11.690	 163.795
 2745	 10.3600	  9.0858	  11.765	 164.695
 2760	 10.3600	  9.1621	  11.841	 165.595
 2775	 10.3400	  9.2358	  11.915	 166.495
 2790	 10.3400	  9.3108	  11.990	 167.395
 2805	 10.3200	  9.3858	  12.065	 168.295
 2820	 10.3000	  9.4621	  12.141	 169.195
 2835	 10.2800	  9.5371	  12.216	 170.095
 2850	 10.2600	  9.6121	  12.291	 170.995
 2865	 10.2400	  9.6871	  12.366	 171.895
 2880	 10.2200	  9.7621	  12.441	 172.795
 2895	 10.2000	  9.8371	  12.516	 173.695
 2910	 10.1800	  9.9133	  12.592	 174.595
 2925	 10.1400	  9.9871	  12.666	 175.495
 2940	 10.1200	 10.0621	  12.741	 176.395
 2955	 10.0800	 10.1383	  12.818	 177.295
 2970	 10.0600	 10.2133	  12.892	 178.195
 2985	 10.0200	 10.2883	  12.967	 179.095
 3000	  9.9800	 10.3633	  13.042	 179.995
 3015	  9.9400	 10.4383	  13.117	 180.895
 3030	  9.8800	 10.5146	  13.194	 181.795
 3045	  9.8400	 10.5896	  13.269	 182.695
 3060	  9.7800	 10.6646	  13.344	 183.595
 3075	  9.7200	 10.7396	  13.419	 184.495
 3090	  9.6600	 10.8146	  13.494	 185.395
 3105	  9.6000	 10.8908	  13.570	 186.295
 3120	  9.5400	 10.9658	  13.645	 187.195
 3135	  9.4600	 11.0396	  13.719	 188.095
 3150	  9.3800	 11.1158	  13.795	 188.995
 3165	  9.3000	 11.1908	  13.870	 189.895
 3180	  9.2200	 11.2658	  13.945	 190.795
 3195	  9.1200	 11.3421	  14.021	 191.695
 3210	  9.0400	 11.4171	  14.096	 192.595
 3225	  8.9400	 11.4921	  14.171	 193.495
 3240	  8.8200	 11.5671	  14.246	 194.395
 3255	  8.7200	 11.6421	  14.321	 195.295
 3270	  8.6000	 11.7158	  14.395	 196.195
 3285	  8.4800	 11.7921	  14.471	 197.095
 3300	  8.3400	 11.8671	  14.546	 197.995
 3315	  8.2000	 11.9421	  14.621	 198.895
 3330	  8.0200	 12.0183	  14.697	 199.795
 3345	  0.0400	 12.0958	  14.775	 200.695
 3360	  0.0400	 12.1721	  14.851	 201.595
 3375	  0.0400	 12.2471	  14.926	 202.495
 3390	  0.0400	 12.3221	  15.001	 203.395
 3394	  0.0400	 12.3421	  15.021	 203.635
ControlMode:	0
Rate:	  5.0000
(null)
4
step	1
0
5.000000
0.000000
1
1
0.500000
2
step	2
1
5.000000
0.000000
1
1
2.000000
3
step	3
5
2.000000
0.000000
1
0
30
4
step	4
8
0.000000
0.000000
0
0
0.000000
0
2