File: Experimento 4/Resultados Experimento 4-20210423/arquivos txt/AluminioEnvelhecido.txt
0
Diameter:	   8.10
   1.00
Area:	  51.5300
GaugeLength:	  50.00
2009-1-1
al envelhecido
001
DataNumber:	2600
index	Load(kN)	Defor(mm)	Stroke(mm)	Time(s)
    0	  0.0000	  0.0000	   0.000	   0.000
   11	  0.1600	  0.0040	   0.039	   0.655
   22	  0.2600	  0.0060	   0.094	   1.315
   33	  0.7600	  0.0120	   0.149	   1.975
   44	  1.1800	  0.0200	   0.204	   2.635
   55	  1.6000	  0.0240	   0.259	   3.295
   66	  1.9400	  0.0280	   0.314	   3.955
   77	  2.2200	  0.0320	   0.367	   4.615
   88	  2.5000	  0.0340	   0.422	   5.275
   99	  2.7400	  0.0340	   0.477	   5.935
  110	  2.9800	  0.0340	   0.532	   6.595
  121	  3.2000	  0.0380	   0.587	   7.255
  132	  3.4200	  0.0380	   0.642	   7.915
  143	  3.6200	  0.0420	   0.696	   8.575
  154	  3.8200	  0.0420	   0.751	   9.235
  165	  4.0400	  0.0440	   0.806	   9.895
  176	  4.2600	  0.0460	   0.861	  10.555
  187	  4.4800	  0.0500	   0.916	  11.215
  198	  4.6800	  0.0500	   0.971	  11.875
  209	  4.8800	  0.0540	   1.026	  12.535
  220	  5.1000	  0.0560	   1.081	  13.195
  231	  5.3200	  0.0600	   1.136	  13.855
  242	  5.5400	  0.0620	   1.191	  14.515
  253	  5.7800	  0.0660	   1.246	  15.175
  264	  6.0000	  0.0680	   1.303	  15.835
  275	  6.2400	  0.0720	   1.357	  16.495
  286	  6.4800	  0.0760	   1.413	  17.155
  297	  6.7200	  0.0780	   1.467	  17.815
  308	  6.9600	  0.0820	   1.522	  18.475
  319	  7.2000	  0.0840	   1.577	  19.135
  330	  7.4400	  0.0880	   1.632	  19.795
  341	  7.7000	  0.0900	   1.688	  20.455
  352	  7.9400	  0.0960	   1.742	  21.115
  363	  8.1800	  0.0980	   1.798	  21.775
  374	  8.4400	  0.1020	   1.852	  22.435
  385	  8.6800	  0.1040	   1.904	  23.095
  396	  8.9200	  0.1080	   1.959	  23.755
  407	  9.1800	  0.1120	   2.014	  24.415
  418	  9.4400	  0.1160	   2.070	  25.075
  429	  9.7000	  0.1180	   2.125	  25.735
  440	  9.9600	  0.1220	   2.180	  26.395
  451	 10.2200	  0.1260	   2.235	  27.055
  462	 10.4800	  0.1300	   2.290	  27.715
  473	 10.7400	  0.1340	   2.345	  28.375
  484	 11.0200	  0.1380	   2.400	  29.035
  495	 11.2800	  0.1400	   2.455	  29.695
  506	 11.5600	  0.1460	   2.511	  30.355
  517	 11.8200	  0.1500	   2.566	  31.015
  528	 12.1000	  0.1540	   2.621	  31.675
  539	 12.3600	  0.1580	   2.676	  32.335
  550	 12.6400	  0.1620	   2.731	  32.995
  561	 12.9000	  0.1660	   2.786	  33.655
  572	 13.1800	  0.1700	   2.842	  34.315
  583	 13.4400	  0.1760	   2.898	  34.975
  594	 13.7000	  0.1800	   2.952	  35.635
  605	 13.9800	  0.1860	   3.007	  36.295
  616	 14.2400	  0.1920	   3.062	  36.955
  627	 14.5000	  0.1960	   3.117	  37.615
  638	 14.7600	  0.2020	   3.172	  38.275
  649	 15.0200	  0.2080	   3.229	  38.935
  660	 15.2800	  0.2160	   3.284	  39.595
  671	 15.5200	  0.2260	   3.339	  40.255
  682	 15.7000	  0.2400	   3.394	  40.915
  693	 15.7800	  0.2680	   3.449	  41.575
  704	 15.8200	  0.3040	   3.504	  42.235
  715	 15.8600	  0.3440	   3.560	  42.895
  726	 15.9200	  0.3860	   3.615	  43.555
  737	 15.9600	  0.4300	   3.670	  44.215
  748	 15.9800	  0.4740	   3.725	  44.875
  759	 16.0200	  0.5200	   3.781	  45.535
  770	 16.0400	  0.5660	   3.836	  46.195
  781	 16.0800	  0.6120	   3.891	  46.855
  792	 16.1000	  0.6580	   3.946	  47.515
  803	 16.1400	  0.7040	   4.001	  48.175
  814	 16.1600	  0.7520	   4.056	  48.835
  825	 16.1800	  0.7980	   4.111	  49.495
  836	 16.2000	  0.8460	   4.166	  50.155
  847	 16.2400	  0.8940	   4.221	  50.815
  858	 16.2600	  0.9400	   4.276	  51.475
  869	 16.2800	  0.9880	   4.331	  52.135
  880	 16.3000	  1.0414	   4.386	  52.795
  891	 16.3200	  1.0976	   4.443	  53.455
  902	 16.3400	  1.1526	   4.497	  54.115
  913	 16.3600	  1.2076	   4.552	  54.775
  924	 16.3800	  1.2626	   4.608	  55.435
  935	 16.4000	  1.3176	   4.662	  56.095
  946	 16.4000	  1.3726	   4.717	  56.755
  957	 16.0800	  1.3814	   4.726	  57.415
  968	 15.9600	  1.3814	   4.726	  58.075
  979	 15.8800	  1.3814	   4.726	  58.735
  990	 15.8400	  1.3814	   4.726	  59.395
 1001	 15.8000	  1.3814	   4.726	  60.055
 1012	 15.7600	  1.3814	   4.726	  60.715
 1023	 15.7400	  1.3814	   4.726	  61.375
 1034	 15.7200	  1.3814	   4.726	  62.035
 1045	 15.7000	  1.3814	   4.726	  62.695
 1056	 15.6800	  1.3814	   4.726	  63.355
 1067	 15.6600	  1.3814	   4.726	  64.015
 1078	 15.6400	  1.3814	   4.726	  64.675
 1089	 15.6400	  1.3814	   4.726	  65.335
 1100	 15.6200	  1.3814	   4.726	  65.995
 1111	 15.6000	  1.3814	   4.726	  66.655
 1122	 15.6000	  1.3814	   4.726	  67.315
 1133	 15.5800	  1.3814	   4.726	  67.975
 1144	 15.5800	  1.3814	   4.726	  68.635
 1155	 15.5600	  1.3814	   4.726	  69.295
 1166	 15.5600	  1.3814	   4.726	  69.955
 1177	 15.5600	  1.3814	   4.726	  70.615
 1188	 15.5400	  1.3814	   4.726	  71.275
 1199	 15.5400	  1.3814	   4.726	  71.935
 1210	 15.5400	  1.3814	   4.726	  72.595
 1221	 15.5200	  1.3814	   4.726	  73.255
 1232	 15.5200	  1.3814	   4.726	  73.915
 1243	 15.5000	  1.3814	   4.726	  74.575
 1254	 15.5000	  1.3814	   4.726	  75.235
 1265	 15.5000	  1.3814	   4.726	  75.895
 1276	 15.4800	  1.3814	   4.726	  76.555
 1287	 15.4800	  1.3814	   4.726	  77.215
 1298	 15.4800	  1.3814	   4.726	  77.875
 1309	 15.4800	  1.3814	   4.726	  78.535
 1320	 15.4800	  1.3814	   4.726	  79.195
 1331	 15.4600	  1.3814	   4.726	  79.855
 1342	 15.4600	  1.3814	   4.726	  80.515
 1353	 15.4600	  1.3814	   4.726	  81.175
 1364	 15.4400	  1.3814	   4.726	  81.835
 1375	 15.4400	  1.3814	   4.726	  82.495
 1386	 15.4400	  1.3814	   4.726	  83.155
 1397	 15.4400	  1.3814	   4.726	  83.815
 1408	 15.4200	  1.3814	   4.726	  84.475
 1419	 15.4200	  1.3814	   4.726	  85.135
 1430	 15.4200	  1.3814	   4.726	  85.795
 1441	 15.4200	  1.3814	   4.726	  86.455
 1452	 15.4200	  1.3814	   4.726	  87.115
 1463	 15.4000	  1.3814	   4.726	  87.775
 1474	 15.4000	  1.3814	   4.726	  88.435
 1485	 15.4000	  1.3814	   4.726	  89.095
 1496	 15.4000	  1.3814	   4.726	  89.755
 1507	 15.4000	  1.3814	   4.726	  90.415
 1518	 15.4000	  1.3814	   4.726	  91.075
 1529	 15.3800	  1.3814	   4.726	  91.735
 1540	 15.3800	  1.3814	   4.726	  92.395
 1551	 15.3800	  1.3814	   4.726	  93.055
 1562	 15.3800	  1.3814	   4.726	  93.715
 1573	 15.3800	  1.3814	   4.726	  94.375
 1584	 16.0400	  1.4139	   4.759	  95.035
 1595	 16.6600	  1.4689	   4.814	  95.695
 1606	 16.5800	  1.5251	   4.870	  96.355
 1617	 16.5800	  1.5789	   4.924	  97.015
 1628	 16.5800	  1.6339	   4.979	  97.675
 1639	 16.5800	  1.6889	   5.034	  98.335
 1650	 16.5600	  1.7439	   5.089	  98.995
 1661	 16.5400	  1.7989	   5.144	  99.655
 1672	 16.5200	  1.8551	   5.200	 100.315
 1683	 16.5200	  1.9101	   5.255	 100.975
 1694	 16.5200	  1.9651	   5.310	 101.635
 1705	 16.5400	  2.0201	   5.365	 102.295
 1716	 16.5400	  2.0751	   5.420	 102.955
 1727	 16.5600	  2.1301	   5.475	 103.615
 1738	 16.5600	  2.1851	   5.530	 104.275
 1749	 16.5800	  2.2401	   5.585	 104.935
 1760	 16.5800	  2.2964	   5.641	 105.595
 1771	 16.6000	  2.3514	   5.696	 106.255
 1782	 16.6000	  2.4064	   5.751	 106.915
 1793	 16.6000	  2.4614	   5.806	 107.575
 1804	 16.6200	  2.5164	   5.861	 108.235
 1815	 16.6200	  2.5714	   5.916	 108.895
 1826	 16.6200	  2.6264	   5.971	 109.555
 1837	 16.6200	  2.6814	   6.026	 110.215
 1848	 16.6200	  2.7364	   6.081	 110.875
 1859	 16.6200	  2.7914	   6.136	 111.535
 1870	 16.6200	  2.8476	   6.192	 112.195
 1881	 16.6000	  2.9026	   6.247	 112.855
 1892	 16.6000	  2.9576	   6.302	 113.515
 1903	 16.6000	  3.0126	   6.358	 114.175
 1914	 16.5800	  3.0676	   6.412	 114.835
 1925	 16.5600	  3.1226	   6.467	 115.495
 1936	 16.5600	  3.1776	   6.523	 116.155
 1947	 16.5400	  3.2339	   6.579	 116.815
 1958	 16.5000	  3.2889	   6.634	 117.475
 1969	 16.4800	  3.3439	   6.689	 118.135
 1980	 16.4600	  3.3989	   6.744	 118.795
 1991	 16.4200	  3.4539	   6.799	 119.455
 2002	 16.4000	  3.5089	   6.854	 120.115
 2013	 16.3600	  3.5639	   6.909	 120.775
 2024	 16.3200	  3.6189	   6.964	 121.435
 2035	 16.2600	  3.6751	   7.020	 122.095
 2046	 16.2200	  3.7301	   7.075	 122.755
 2057	 16.1800	  3.7851	   7.130	 123.415
 2068	 16.1200	  3.8401	   7.185	 124.075
 2079	 16.0600	  3.8951	   7.240	 124.735
 2090	 16.0000	  3.9501	   7.295	 125.395
 2101	 15.9400	  4.0051	   7.350	 126.055
 2112	 15.8800	  4.0601	   7.405	 126.715
 2123	 15.8200	  4.1151	   7.460	 127.375
 2134	 15.7400	  4.1714	   7.516	 128.035
 2145	 15.6800	  4.2264	   7.571	 128.695
 2156	 15.6000	  4.2814	   7.626	 129.355
 2167	 15.5400	  4.3364	   7.681	 130.015
 2178	 15.4600	  4.3914	   7.736	 130.675
 2189	 15.3800	  4.4464	   7.791	 131.335
 2200	 15.3000	  4.5026	   7.847	 131.995
 2211	 15.2200	  4.5576	   7.902	 132.655
 2222	 15.1400	  4.6126	   7.957	 133.315
 2233	 15.0600	  4.6676	   8.012	 133.975
 2244	 14.9600	  4.7226	   8.068	 134.635
 2255	 14.8800	  4.7776	   8.122	 135.295
 2266	 14.8000	  4.8339	   8.179	 135.955
 2277	 14.7000	  4.8889	   8.234	 136.615
 2288	 14.6000	  4.9439	   8.289	 137.275
 2299	 14.5000	  4.9989	   8.344	 137.935
 2310	 14.4000	  5.0539	   8.399	 138.595
 2321	 14.3200	  5.1089	   8.454	 139.255
 2332	 14.2000	  5.1651	   8.510	 139.915
 2343	 14.1000	  5.2201	   8.565	 140.575
 2354	 14.0000	  5.2751	   8.620	 141.235
 2365	 13.9000	  5.3301	   8.675	 141.895
 2376	 13.7800	  5.3851	   8.730	 142.555
 2387	 13.6600	  5.4401	   8.785	 143.215
 2398	 13.5600	  5.4951	   8.840	 143.875
 2409	 13.4400	  5.5514	   8.896	 144.535
 2420	 13.3200	  5.6064	   8.951	 145.195
 2431	 13.1800	  5.6614	   9.006	 145.855
 2442	 13.0600	  5.7164	   9.061	 146.515
 2453	 12.9400	  5.7714	   9.116	 147.175
 2464	 12.8000	  5.8264	   9.171	 147.835
 2475	 12.6600	  5.8814	   9.226	 148.495
 2486	 12.5200	  5.9364	   9.281	 149.155
 2497	 12.3600	  5.9926	   9.337	 149.815
 2508	 12.2000	  6.0476	   9.392	 150.475
 2519	 12.0400	  6.1026	   9.448	 151.135
 2530	  0.0600	  6.1651	   9.510	 151.795
 2541	  0.0600	  6.2201	   9.565	 152.455
 2552	  0.0600	  6.2764	   9.621	 153.115
 2563	  0.0600	  6.3314	   9.676	 153.775
 2574	  0.0600	  6.3864	   9.731	 154.435
 2585	  0.0600	  6.4414	   9.786	 155.095
 2596	  0.0600	  6.4964	   9.841	 155.755
 2599	  0.0600	  6.5114	   9.856	 155.935
ControlMode:	0
Rate:	  5.0000
(null)
4
step	1
0
5.000000
0.000000
1
1
0.500000
2
step	2
1
5.000000
0.000000
1
1
2.000000
3
step	3
5
2.000000
0.000000
1
0
30
4
step	4
8
0.000000
0.000000
0
0
0.000000
0
2