File: Experimento 4/Resultados Experimento 4-20210423/arquivos txt/AçoTemperado.txt
0
Diameter:	   7.85
   1.00
Area:	  48.3982
GaugeLength:	  50.00
2009-1-1
aco temp
001
DataNumber:	1641
index	Load(kN)	Defor(mm)	Stroke(mm)	Time(s)
    0	  0.0000	  0.0000	   0.000	   0.000
    7	  0.0000	  0.0187	   0.019	   0.415
   14	  0.1400	  0.0537	   0.054	   0.835
   21	  0.1600	  0.0887	   0.089	   1.255
   28	  0.1600	  0.1237	   0.124	   1.675
   35	  0.5000	  0.1587	   0.159	   2.095
   42	  0.8800	  0.1937	   0.194	   2.515
   49	  1.0400	  0.2287	   0.229	   2.935
   56	  1.1200	  0.2637	   0.264	   3.355
   63	  1.1600	  0.2987	   0.299	   3.775
   70	  1.2200	  0.3337	   0.334	   4.195
   77	  1.2600	  0.3688	   0.369	   4.615
   84	  1.3000	  0.4025	   0.403	   5.035
   91	  1.3400	  0.4387	   0.439	   5.455
   98	  1.3800	  0.4725	   0.472	   5.875
  105	  1.4200	  0.5075	   0.507	   6.295
  112	  1.4600	  0.5425	   0.542	   6.715
  119	  1.5000	  0.5775	   0.577	   7.135
  126	  1.5200	  0.6125	   0.613	   7.555
  133	  1.5600	  0.6475	   0.647	   7.975
  140	  1.5800	  0.6825	   0.683	   8.395
  147	  1.6200	  0.7175	   0.717	   8.815
  154	  1.6400	  0.7525	   0.752	   9.235
  161	  1.6800	  0.7862	   0.786	   9.655
  168	  1.7200	  0.8212	   0.821	  10.075
  175	  1.7400	  0.8562	   0.856	  10.495
  182	  1.7800	  0.8912	   0.891	  10.915
  189	  1.8200	  0.9262	   0.926	  11.335
  196	  1.8600	  0.9613	   0.961	  11.755
  203	  1.8800	  0.9962	   0.996	  12.175
  210	  1.9400	  1.0312	   1.031	  12.595
  217	  1.9800	  1.0662	   1.066	  13.015
  224	  2.0200	  1.1012	   1.101	  13.435
  231	  2.0800	  1.1363	   1.136	  13.855
  238	  2.1200	  1.1712	   1.171	  14.275
  245	  2.1800	  1.2062	   1.206	  14.695
  252	  2.2200	  1.2412	   1.241	  15.115
  259	  2.2800	  1.2775	   1.277	  15.535
  266	  2.3000	  1.3125	   1.312	  15.955
  273	  2.3600	  1.3475	   1.347	  16.375
  280	  2.4000	  1.3825	   1.382	  16.795
  287	  2.4400	  1.4175	   1.418	  17.215
  294	  2.5000	  1.4525	   1.452	  17.635
  301	  2.5400	  1.4875	   1.487	  18.055
  308	  2.6000	  1.5225	   1.522	  18.475
  315	  2.6400	  1.5575	   1.558	  18.895
  322	  2.7000	  1.5925	   1.592	  19.315
  329	  2.7600	  1.6275	   1.627	  19.735
  336	  2.8000	  1.6625	   1.662	  20.155
  343	  2.8600	  1.6975	   1.697	  20.575
  350	  2.9200	  1.7325	   1.732	  20.995
  357	  2.9800	  1.7675	   1.767	  21.415
  364	  3.0600	  1.8025	   1.803	  21.835
  371	  3.1400	  1.8388	   1.839	  22.255
  378	  3.2400	  1.8737	   1.874	  22.675
  385	  3.3200	  1.9087	   1.909	  23.095
  392	  3.4200	  1.9437	   1.944	  23.515
  399	  3.5200	  1.9787	   1.979	  23.935
  406	  3.6200	  2.0137	   2.014	  24.355
  413	  3.7200	  2.0487	   2.049	  24.775
  420	  3.8400	  2.0838	   2.084	  25.195
  427	  3.9400	  2.1200	   2.120	  25.615
  434	  4.0600	  2.1550	   2.155	  26.035
  441	  4.1800	  2.1900	   2.190	  26.455
  448	  4.3000	  2.2250	   2.225	  26.875
  455	  4.4400	  2.2600	   2.260	  27.295
  462	  4.5600	  2.2950	   2.295	  27.715
  469	  4.7000	  2.3300	   2.330	  28.135
  476	  4.8400	  2.3650	   2.365	  28.555
  483	  5.0000	  2.4000	   2.400	  28.975
  490	  5.1400	  2.4350	   2.435	  29.395
  497	  5.2600	  2.4700	   2.470	  29.815
  504	  5.4200	  2.5050	   2.505	  30.235
  511	  5.5800	  2.5400	   2.540	  30.655
  518	  5.7200	  2.5750	   2.575	  31.075
  525	  5.8800	  2.6100	   2.610	  31.495
  532	  6.0400	  2.6463	   2.646	  31.915
  539	  6.2000	  2.6800	   2.680	  32.335
  546	  6.3600	  2.7162	   2.716	  32.755
  553	  6.5200	  2.7500	   2.750	  33.175
  560	  6.6800	  2.7862	   2.786	  33.595
  567	  6.8600	  2.8200	   2.820	  34.015
  574	  7.0200	  2.8563	   2.856	  34.435
  581	  7.2200	  2.8900	   2.890	  34.855
  588	  7.4000	  2.9262	   2.926	  35.275
  595	  7.5800	  2.9612	   2.961	  35.695
  602	  7.7800	  2.9962	   2.996	  36.115
  609	  7.9800	  3.0312	   3.031	  36.535
  616	  8.1600	  3.0662	   3.066	  36.955
  623	  8.3200	  3.1012	   3.101	  37.375
  630	  8.5600	  3.1363	   3.136	  37.795
  637	  8.7600	  3.1712	   3.171	  38.215
  644	  8.9800	  3.2075	   3.207	  38.635
  651	  9.2200	  3.2425	   3.242	  39.055
  658	  9.4600	  3.2775	   3.277	  39.475
  665	  9.7000	  3.3125	   3.312	  39.895
  672	  9.9400	  3.3475	   3.347	  40.315
  679	 10.1800	  3.3825	   3.382	  40.735
  686	 10.4200	  3.4175	   3.418	  41.155
  693	 10.6600	  3.4525	   3.452	  41.575
  700	 10.8800	  3.4850	   3.485	  41.995
  707	 11.1400	  3.5200	   3.520	  42.415
  714	 11.4000	  3.5550	   3.555	  42.835
  721	 11.6600	  3.5900	   3.590	  43.255
  728	 11.9200	  3.6250	   3.625	  43.675
  735	 12.1800	  3.6600	   3.660	  44.095
  742	 12.4400	  3.6950	   3.695	  44.515
  749	 12.7000	  3.7300	   3.730	  44.935
  756	 12.9600	  3.7650	   3.765	  45.355
  763	 13.2400	  3.8000	   3.800	  45.775
  770	 13.5000	  3.8350	   3.835	  46.195
  777	 13.7800	  3.8700	   3.870	  46.615
  784	 14.0400	  3.9050	   3.905	  47.035
  791	 14.3200	  3.9400	   3.940	  47.455
  798	 14.6000	  3.9750	   3.975	  47.875
  805	 14.8800	  4.0100	   4.010	  48.295
  812	 15.1600	  4.0462	   4.046	  48.715
  819	 15.4200	  4.0800	   4.080	  49.135
  826	 15.7200	  4.1163	   4.116	  49.555
  833	 16.0000	  4.1512	   4.151	  49.975
  840	 16.2800	  4.1862	   4.186	  50.395
  847	 16.5600	  4.2213	   4.221	  50.815
  854	 16.8600	  4.2562	   4.256	  51.235
  861	 17.1400	  4.2912	   4.291	  51.655
  868	 17.4400	  4.3263	   4.326	  52.075
  875	 17.7200	  4.3612	   4.361	  52.495
  882	 18.0200	  4.3962	   4.396	  52.915
  889	 18.3200	  4.4313	   4.431	  53.335
  896	 18.6200	  4.4675	   4.467	  53.755
  903	 18.9000	  4.5025	   4.503	  54.175
  910	 19.2000	  4.5375	   4.537	  54.595
  917	 19.5000	  4.5725	   4.572	  55.015
  924	 19.8000	  4.6075	   4.608	  55.435
  931	 20.1000	  4.6425	   4.642	  55.855
  938	 20.4000	  4.6775	   4.677	  56.275
  945	 20.7000	  4.7125	   4.713	  56.695
  952	 21.0000	  4.7475	   4.747	  57.115
  959	 21.3200	  4.7825	   4.782	  57.535
  966	 21.6200	  4.8175	   4.818	  57.955
  973	 21.9200	  4.8525	   4.852	  58.375
  980	 22.2200	  4.8875	   4.887	  58.795
  987	 22.5400	  4.9225	   4.922	  59.215
  994	 22.8400	  4.9575	   4.957	  59.635
 1001	 23.1600	  4.9925	   4.992	  60.055
 1008	 23.4800	  5.0275	   5.027	  60.475
 1015	 23.7800	  5.0625	   5.062	  60.895
 1022	 24.1000	  5.0975	   5.097	  61.315
 1029	 24.4000	  5.1325	   5.132	  61.735
 1036	 24.7200	  5.1687	   5.169	  62.155
 1043	 25.0400	  5.2037	   5.204	  62.575
 1050	 25.3400	  5.2387	   5.239	  62.995
 1057	 25.6600	  5.2737	   5.274	  63.415
 1064	 25.9800	  5.3087	   5.309	  63.835
 1071	 26.3000	  5.3438	   5.344	  64.255
 1078	 26.6200	  5.3787	   5.379	  64.675
 1085	 26.9400	  5.4137	   5.414	  65.095
 1092	 27.2600	  5.4488	   5.449	  65.515
 1099	 27.5800	  5.4837	   5.484	  65.935
 1106	 27.9000	  5.5187	   5.519	  66.355
 1113	 28.2200	  5.5538	   5.554	  66.775
 1120	 28.5400	  5.5887	   5.589	  67.195
 1127	 28.8600	  5.6237	   5.624	  67.615
 1134	 29.1800	  5.6588	   5.659	  68.035
 1141	 29.5200	  5.6937	   5.694	  68.455
 1148	 29.8400	  5.7287	   5.729	  68.875
 1155	 30.1600	  5.7638	   5.764	  69.295
 1162	 30.4800	  5.7987	   5.799	  69.715
 1169	 30.8000	  5.8337	   5.834	  70.135
 1176	 31.1400	  5.8688	   5.869	  70.555
 1183	 31.4600	  5.9037	   5.904	  70.975
 1190	 31.7800	  5.9387	   5.939	  71.395
 1197	 32.1200	  5.9737	   5.974	  71.815
 1204	 32.4400	  6.0087	   6.009	  72.235
 1211	 32.7800	  6.0437	   6.044	  72.655
 1218	 33.1000	  6.0787	   6.079	  73.075
 1225	 33.4200	  6.1137	   6.114	  73.495
 1232	 33.7600	  6.1487	   6.149	  73.915
 1239	 34.0800	  6.1837	   6.184	  74.335
 1246	 34.4000	  6.2175	   6.217	  74.755
 1253	 34.7400	  6.2525	   6.253	  75.175
 1260	 35.0800	  6.2875	   6.287	  75.595
 1267	 35.4000	  6.3225	   6.322	  76.015
 1274	 35.7200	  6.3575	   6.358	  76.435
 1281	 36.0600	  6.3925	   6.392	  76.855
 1288	 36.3800	  6.4275	   6.427	  77.275
 1295	 36.7000	  6.4625	   6.462	  77.695
 1302	 37.0400	  6.4975	   6.497	  78.115
 1309	 37.3600	  6.5325	   6.532	  78.535
 1316	 37.7000	  6.5675	   6.567	  78.955
 1323	 38.0400	  6.6025	   6.602	  79.375
 1330	 38.3600	  6.6375	   6.637	  79.795
 1337	 38.7000	  6.6725	   6.672	  80.215
 1344	 39.0200	  6.7075	   6.707	  80.635
 1351	 39.3600	  6.7425	   6.742	  81.055
 1358	 39.7000	  6.7775	   6.777	  81.475
 1365	 40.0200	  6.8125	   6.812	  81.895
 1372	 40.3600	  6.8475	   6.847	  82.315
 1379	 40.6800	  6.8825	   6.882	  82.735
 1386	 41.0200	  6.9162	   6.916	  83.155
 1393	 41.3400	  6.9513	   6.951	  83.575
 1400	 41.6800	  6.9862	   6.986	  83.995
 1407	 42.0200	  7.0212	   7.021	  84.415
 1414	 42.3600	  7.0562	   7.056	  84.835
 1421	 42.6800	  7.0912	   7.091	  85.255
 1428	 43.0200	  7.1262	   7.126	  85.675
 1435	 43.3600	  7.1612	   7.161	  86.095
 1442	 43.7000	  7.1962	   7.196	  86.515
 1449	 44.0200	  7.2312	   7.231	  86.935
 1456	 44.3600	  7.2662	   7.266	  87.355
 1463	 44.7000	  7.3012	   7.301	  87.775
 1470	 45.0400	  7.3362	   7.336	  88.195
 1477	 45.3600	  7.3712	   7.371	  88.615
 1484	 45.7000	  7.4062	   7.406	  89.035
 1491	 46.0400	  7.4412	   7.441	  89.455
 1498	 46.3800	  7.4762	   7.476	  89.875
 1505	 46.7000	  7.5113	   7.511	  90.295
 1512	 47.0400	  7.5462	   7.546	  90.715
 1519	 47.3800	  7.5800	   7.580	  91.135
 1526	 47.7200	  7.6163	   7.616	  91.555
 1533	 48.0600	  7.6512	   7.651	  91.975
 1540	 48.3800	  7.6862	   7.686	  92.395
 1547	 48.7200	  7.7213	   7.721	  92.815
 1554	 33.6000	  7.7850	   7.785	  93.235
 1561	  0.1000	  7.8087	   7.809	  93.655
 1568	  0.1000	  7.8438	   7.844	  94.075
 1575	  0.1000	  7.8775	   7.878	  94.495
 1582	  0.1000	  7.9125	   7.912	  94.915
 1589	  0.1000	  7.9475	   7.947	  95.335
 1596	  0.1000	  7.9825	   7.982	  95.755
 1603	  0.1000	  8.0175	   8.017	  96.175
 1610	  0.1000	  8.0525	   8.052	  96.595
 1617	  0.1000	  8.0875	   8.087	  97.015
 1624	  0.1000	  8.1225	   8.122	  97.435
 1631	  0.1000	  8.1575	   8.158	  97.855
 1638	  0.1000	  8.1925	   8.193	  98.275
 1640	  0.1000	  8.2025	   8.202	  98.395
ControlMode:	0
Rate:	  5.0000
(null)
4
step	1
0
5.000000
0.000000
1
1
0.500000
2
step	2
1
5.000000
0.000000
1
1
2.000000
3
step	3
5
2.000000
0.000000
1
0
30
4
step	4
8
0.000000
0.000000
0
0
0.000000
0
2