File: Experimento 4/Resultados Experimento 4-20210423/arquivos txt/AçoRevenido.txt
0
Diameter:	   7.90
   1.00
Area:	  49.0167
GaugeLength:	  50.00
2009-1-1
ACO REVENIDO
GRUPO3 ACO REVENIDO
DataNumber:	2647
index	Load(kN)	Defor(mm)	Stroke(mm)	Time(s)
    0	  0.0000	  0.0000	   0.000	   0.000
   12	  0.0600	  0.5140	   0.050	   0.715
   24	  0.0600	  0.5140	   0.109	   1.435
   36	  0.0600	  0.5140	   0.169	   2.155
   48	  0.0600	  0.5160	   0.229	   2.875
   60	  0.0600	  0.5160	   0.289	   3.595
   72	  0.0600	  0.5160	   0.349	   4.315
   84	  0.0600	  0.5160	   0.407	   5.035
   96	  0.0800	  0.5160	   0.468	   5.755
  108	  0.0800	  0.5160	   0.527	   6.475
  120	  0.2800	  0.5160	   0.587	   7.195
  132	  0.8200	  0.5140	   0.647	   7.915
  144	  1.6200	  0.5140	   0.707	   8.635
  156	  2.5200	  0.5160	   0.766	   9.355
  168	  2.8000	  0.5160	   0.826	  10.075
  180	  3.3400	  0.5160	   0.886	  10.795
  192	  3.6200	  0.5180	   0.946	  11.515
  204	  3.9400	  0.5200	   1.006	  12.235
  216	  4.4200	  0.5220	   1.066	  12.955
  228	  4.9600	  0.5240	   1.126	  13.675
  240	  5.5400	  0.5260	   1.185	  14.395
  252	  6.1200	  0.5300	   1.245	  15.115
  264	  6.7000	  0.5340	   1.305	  15.835
  276	  7.3000	  0.5360	   1.365	  16.555
  288	  7.8800	  0.5400	   1.425	  17.275
  300	  8.4800	  0.5420	   1.485	  17.995
  312	  9.1000	  0.5460	   1.545	  18.715
  324	  9.7000	  0.5480	   1.605	  19.435
  336	 10.3000	  0.5520	   1.665	  20.155
  348	 10.9200	  0.5540	   1.725	  20.875
  360	 11.5200	  0.5580	   1.785	  21.595
  372	 12.1400	  0.5620	   1.845	  22.315
  384	 12.7800	  0.5660	   1.905	  23.035
  396	 13.4200	  0.5680	   1.965	  23.755
  408	 14.0600	  0.5700	   2.025	  24.475
  420	 14.7000	  0.5740	   2.085	  25.195
  432	 15.3400	  0.5780	   2.145	  25.915
  444	 16.0000	  0.5820	   2.205	  26.635
  456	 16.6400	  0.5860	   2.263	  27.355
  468	 17.3200	  0.5880	   2.322	  28.075
  480	 17.9800	  0.5920	   2.382	  28.795
  492	 18.6600	  0.5960	   2.442	  29.515
  504	 19.3400	  0.5980	   2.501	  30.235
  516	 20.0400	  0.6020	   2.561	  30.955
  528	 20.7200	  0.6060	   2.621	  31.675
  540	 21.4200	  0.6100	   2.681	  32.395
  552	 22.1200	  0.6140	   2.741	  33.115
  564	 22.8200	  0.6160	   2.801	  33.835
  576	 23.5400	  0.6200	   2.861	  34.555
  588	 24.2400	  0.6240	   2.921	  35.275
  600	 24.9600	  0.6280	   2.981	  35.995
  612	 25.6600	  0.6320	   3.041	  36.715
  624	 26.3800	  0.6360	   3.101	  37.435
  636	 27.1000	  0.6400	   3.160	  38.155
  648	 27.8400	  0.6440	   3.220	  38.875
  660	 28.5600	  0.6480	   3.280	  39.595
  672	 29.2800	  0.6500	   3.340	  40.315
  684	 30.0200	  0.6540	   3.400	  41.035
  696	 30.7400	  0.6580	   3.459	  41.755
  708	 31.4800	  0.6620	   3.519	  42.475
  720	 32.2000	  0.6660	   3.576	  43.195
  732	 32.9400	  0.6700	   3.636	  43.915
  744	 33.6800	  0.6740	   3.696	  44.635
  756	 34.4400	  0.6780	   3.756	  45.355
  768	 35.1800	  0.6820	   3.816	  46.075
  780	 35.9200	  0.6860	   3.876	  46.795
  792	 36.6800	  0.6900	   3.936	  47.515
  804	 37.4200	  0.6940	   3.996	  48.235
  816	 38.1800	  0.6980	   4.055	  48.955
  828	 38.9400	  0.7020	   4.115	  49.675
  840	 39.7000	  0.7060	   4.175	  50.395
  852	 40.4400	  0.7100	   4.235	  51.115
  864	 41.2200	  0.7140	   4.295	  51.835
  876	 41.9800	  0.7180	   4.355	  52.555
  888	 42.7400	  0.7220	   4.415	  53.275
  900	 43.5000	  0.7260	   4.475	  53.995
  912	 44.2600	  0.7300	   4.534	  54.715
  924	 45.0200	  0.7360	   4.595	  55.435
  936	 45.7800	  0.7400	   4.654	  56.155
  948	 46.5400	  0.7440	   4.714	  56.875
  960	 47.0000	  0.7460	   4.774	  57.595
  972	 47.7600	  0.7540	   4.834	  58.315
  984	 48.4400	  0.7600	   4.894	  59.035
  996	 49.0400	  0.7720	   4.954	  59.755
 1008	 49.3400	  0.7960	   5.014	  60.475
 1020	 49.1600	  0.8460	   5.074	  61.195
 1032	 49.1400	  0.9000	   5.135	  61.915
 1044	 49.1400	  0.9540	   5.195	  62.635
 1056	 49.2000	  1.0080	   5.255	  63.355
 1068	 49.3400	  1.0600	   5.315	  64.075
 1080	 49.4600	  1.1100	   5.375	  64.795
 1092	 49.5600	  1.1600	   5.436	  65.515
 1104	 49.6800	  1.2112	   5.496	  66.235
 1116	 49.7800	  1.2712	   5.556	  66.955
 1128	 49.8800	  1.3312	   5.616	  67.675
 1140	 49.9800	  1.3912	   5.676	  68.395
 1152	 49.4800	  1.4087	   5.694	  69.115
 1164	 49.2400	  1.4087	   5.694	  69.835
 1176	 49.1200	  1.4099	   5.695	  70.555
 1188	 49.0200	  1.4099	   5.695	  71.275
 1200	 48.9600	  1.4099	   5.695	  71.995
 1212	 48.9000	  1.4099	   5.695	  72.715
 1224	 48.8600	  1.4099	   5.695	  73.435
 1236	 48.8200	  1.4099	   5.695	  74.155
 1248	 48.8000	  1.4099	   5.695	  74.875
 1260	 48.7600	  1.4099	   5.695	  75.595
 1272	 48.7200	  1.4099	   5.695	  76.315
 1284	 48.7000	  1.4099	   5.695	  77.035
 1296	 48.6800	  1.4099	   5.695	  77.755
 1308	 48.6600	  1.4099	   5.695	  78.475
 1320	 48.6400	  1.4099	   5.695	  79.195
 1332	 48.6200	  1.4099	   5.695	  79.915
 1344	 48.8200	  1.4174	   5.702	  80.635
 1356	 50.1600	  1.4774	   5.762	  81.355
 1368	 50.3000	  1.5374	   5.822	  82.075
 1380	 50.3800	  1.5974	   5.882	  82.795
 1392	 50.4600	  1.6587	   5.944	  83.515
 1404	 50.5200	  1.7187	   6.004	  84.235
 1416	 50.6000	  1.7799	   6.065	  84.955
 1428	 50.6800	  1.8399	   6.125	  85.675
 1440	 50.7800	  1.8987	   6.184	  86.395
 1452	 50.8800	  1.9599	   6.245	  87.115
 1464	 50.9600	  2.0199	   6.305	  87.835
 1476	 51.0600	  2.0799	   6.365	  88.555
 1488	 51.1600	  2.1399	   6.425	  89.275
 1500	 51.2400	  2.1999	   6.485	  89.995
 1512	 51.3400	  2.2612	   6.546	  90.715
 1524	 51.4400	  2.3212	   6.606	  91.435
 1536	 51.5200	  2.3812	   6.666	  92.155
 1548	 51.6000	  2.4412	   6.726	  92.875
 1560	 51.6800	  2.5024	   6.787	  93.595
 1572	 51.7600	  2.5624	   6.847	  94.315
 1584	 51.8400	  2.6224	   6.907	  95.035
 1596	 51.9200	  2.6824	   6.967	  95.755
 1608	 51.9800	  2.7424	   7.027	  96.475
 1620	 52.0600	  2.8024	   7.087	  97.195
 1632	 52.1200	  2.8624	   7.148	  97.915
 1644	 52.2000	  2.9224	   7.207	  98.635
 1656	 52.2400	  2.9824	   7.267	  99.355
 1668	 52.3000	  3.0437	   7.329	 100.075
 1680	 52.3600	  3.1024	   7.387	 100.795
 1692	 52.4200	  3.1624	   7.447	 101.515
 1704	 52.4600	  3.2237	   7.509	 102.235
 1716	 52.5000	  3.2837	   7.569	 102.955
 1728	 52.5400	  3.3437	   7.629	 103.675
 1740	 52.5800	  3.4037	   7.689	 104.395
 1752	 52.6200	  3.4637	   7.749	 105.115
 1764	 52.6600	  3.5237	   7.809	 105.835
 1776	 52.6800	  3.5849	   7.870	 106.555
 1788	 52.7000	  3.6449	   7.930	 107.275
 1800	 52.7200	  3.7049	   7.990	 107.995
 1812	 52.7400	  3.7649	   8.050	 108.715
 1824	 52.7600	  3.8249	   8.110	 109.435
 1836	 52.7600	  3.8849	   8.170	 110.155
 1848	 52.7600	  3.9449	   8.230	 110.875
 1860	 52.7800	  4.0049	   8.290	 111.595
 1872	 52.7600	  4.0649	   8.350	 112.315
 1884	 52.7600	  4.1262	   8.411	 113.035
 1896	 52.7600	  4.1862	   8.471	 113.755
 1908	 52.7400	  4.2462	   8.531	 114.475
 1920	 52.7200	  4.3062	   8.591	 115.195
 1932	 52.7000	  4.3662	   8.651	 115.915
 1944	 52.6600	  4.4262	   8.711	 116.635
 1956	 52.6000	  4.4874	   8.773	 117.355
 1968	 52.5400	  4.5474	   8.832	 118.075
 1980	 52.4600	  4.6074	   8.892	 118.795
 1992	 52.3600	  4.6674	   8.952	 119.515
 2004	 52.2600	  4.7274	   9.012	 120.235
 2016	 52.1200	  4.7887	   9.074	 120.955
 2028	 51.9200	  4.8499	   9.135	 121.675
 2040	 51.8600	  4.9099	   9.195	 122.395
 2052	 51.6200	  4.9699	   9.255	 123.115
 2064	 51.4000	  5.0299	   9.315	 123.835
 2076	 51.1800	  5.0912	   9.376	 124.555
 2088	 50.9400	  5.1499	   9.435	 125.275
 2100	 50.6800	  5.2112	   9.496	 125.995
 2112	 50.4400	  5.2712	   9.556	 126.715
 2124	 50.1800	  5.3312	   9.616	 127.435
 2136	 49.9200	  5.3912	   9.676	 128.155
 2148	 49.6400	  5.4512	   9.736	 128.875
 2160	 49.3600	  5.5112	   9.796	 129.595
 2172	 49.0800	  5.5724	   9.858	 130.315
 2184	 48.8000	  5.6312	   9.916	 131.035
 2196	 48.5000	  5.6924	   9.977	 131.755
 2208	 48.2000	  5.7524	  10.037	 132.475
 2220	 47.9000	  5.8124	  10.097	 133.195
 2232	 47.6000	  5.8737	  10.159	 133.915
 2244	 47.2800	  5.9337	  10.219	 134.635
 2256	 46.9600	  5.9937	  10.279	 135.355
 2268	 46.6400	  6.0537	  10.339	 136.075
 2280	 46.3000	  6.1137	  10.399	 136.795
 2292	 45.9600	  6.1749	  10.460	 137.515
 2304	 45.6200	  6.2349	  10.520	 138.235
 2316	 45.2800	  6.2949	  10.580	 138.955
 2328	 44.9200	  6.3549	  10.640	 139.675
 2340	 44.5400	  6.4162	  10.701	 140.395
 2352	 44.1800	  6.4762	  10.761	 141.115
 2364	 43.7800	  6.5362	  10.821	 141.835
 2376	 43.4000	  6.5974	  10.882	 142.555
 2388	 43.0000	  6.6574	  10.943	 143.275
 2400	 42.5800	  6.7174	  11.002	 143.995
 2412	 42.1400	  6.7787	  11.064	 144.715
 2424	 41.7200	  6.8387	  11.124	 145.435
 2436	 41.2800	  6.8974	  11.182	 146.155
 2448	 40.8200	  6.9574	  11.242	 146.875
 2460	 40.3400	  7.0174	  11.302	 147.595
 2472	 39.8800	  7.0787	  11.364	 148.315
 2484	 39.3800	  7.1387	  11.424	 149.035
 2496	 38.8800	  7.1987	  11.484	 149.755
 2508	 38.3600	  7.2587	  11.544	 150.475
 2520	 37.8200	  7.3199	  11.605	 151.195
 2532	 37.2600	  7.3799	  11.665	 151.915
 2544	 36.6800	  7.4399	  11.725	 152.635
 2556	 36.1000	  7.5012	  11.786	 153.355
 2568	 35.4800	  7.5612	  11.846	 154.075
 2580	 34.8600	  7.6212	  11.906	 154.795
 2592	 34.2000	  7.6812	  11.966	 155.515
 2604	  0.0200	  7.7412	  12.026	 156.235
 2616	  0.0200	  7.8012	  12.086	 156.955
 2628	  0.0200	  7.8599	  12.145	 157.675
 2640	  0.0000	  7.9199	  12.205	 158.395
 2646	  0.0000	  7.9499	  12.235	 158.755
ControlMode:	0
Rate:	  5.0000
(null)
4
step	1
0
5.000000
0.000000
1
1
0.500000
2
step	2
1
5.000000
0.000000
1
1
2.000000
3
step	3
5
2.000000
0.000000
1
0
30
4
step	4
8
0.000000
0.000000
0
0
0.000000
0
2