File: Experimento 4/Resultados Experimento 4-20210423/arquivos txt/PolimeroAmarelo100mm_min.txt
0
Diameter:	   5.00
   1.00
Area:	  19.6350
GaugeLength:	  50.00
2018-10-8
Polimero100
Polimero100
DataNumber:	120
index	Load(kN)	Defor(mm)	Stroke(mm)	Time(s)
    0	  0.0000	  0.0000	   0.000	   0.000
    1	  0.0200	  0.7080	   0.052	   0.055
    2	  0.0400	  0.6940	   0.149	   0.115
    3	  0.0400	  0.7000	   0.249	   0.175
    4	  0.0600	  0.7040	   0.347	   0.235
    5	  0.0600	  0.7060	   0.449	   0.295
    6	  0.0400	  0.7060	   0.548	   0.355
    7	  0.0400	  0.7060	   0.647	   0.415
    8	  0.0400	  0.7060	   0.749	   0.475
    9	  0.0400	  0.7060	   0.847	   0.535
   10	  0.0600	  0.7060	   0.949	   0.595
   11	  0.1200	  0.7060	   1.048	   0.655
   12	  0.1600	  0.7060	   1.149	   0.715
   13	  0.2000	  0.7060	   1.247	   0.775
   14	  0.2600	  0.7040	   1.349	   0.835
   15	  0.3000	  0.7040	   1.449	   0.895
   16	  0.3200	  0.7060	   1.549	   0.955
   17	  0.3600	  0.7040	   1.650	   1.015
   18	  0.3800	  0.7060	   1.749	   1.075
   19	  0.4200	  0.7060	   1.850	   1.135
   20	  0.4400	  0.7040	   1.950	   1.195
   21	  0.4600	  0.7040	   2.051	   1.255
   22	  0.4800	  0.7040	   2.151	   1.315
   23	  0.5000	  0.7040	   2.250	   1.375
   24	  0.5200	  0.7040	   2.351	   1.435
   25	  0.5200	  0.7040	   2.451	   1.495
   26	  0.5400	  0.7040	   2.553	   1.555
   27	  0.5600	  0.7040	   2.652	   1.615
   28	  0.5800	  0.7040	   2.754	   1.675
   29	  0.6000	  0.7040	   2.854	   1.735
   30	  0.6000	  0.7040	   2.955	   1.795
   31	  0.6000	  0.7040	   3.055	   1.855
   32	  0.6200	  0.7040	   3.154	   1.915
   33	  0.6200	  0.7040	   3.255	   1.975
   34	  0.6200	  0.7040	   3.355	   2.035
   35	  0.6200	  0.7040	   3.456	   2.095
   36	  0.6200	  0.7040	   3.556	   2.155
   37	  0.6200	  0.7040	   3.656	   2.215
   38	  0.6000	  0.7020	   3.756	   2.275
   39	  0.6000	  0.7020	   3.857	   2.335
   40	  0.6000	  0.7020	   3.957	   2.395
   41	  0.5800	  0.7020	   4.057	   2.455
   42	  0.5800	  0.7020	   4.159	   2.515
   43	  0.5800	  0.7020	   4.259	   2.575
   44	  0.5800	  0.7020	   4.360	   2.635
   45	  0.5600	  0.7020	   4.457	   2.695
   46	  0.5600	  0.7000	   4.559	   2.755
   47	  0.5600	  0.7000	   4.659	   2.815
   48	  0.5600	  0.7000	   4.757	   2.875
   49	  0.5400	  0.7000	   4.859	   2.935
   50	  0.5400	  0.7000	   4.959	   2.995
   51	  0.5400	  0.7000	   5.060	   3.055
   52	  0.5400	  0.7000	   5.160	   3.115
   53	  0.5400	  0.7020	   5.260	   3.175
   54	  0.5400	  0.7000	   5.359	   3.235
   55	  0.5200	  0.7000	   5.460	   3.295
   56	  0.5200	  0.7000	   5.559	   3.355
   57	  0.5200	  0.7000	   5.659	   3.415
   58	  0.5200	  0.7000	   5.760	   3.475
   59	  0.5200	  0.7000	   5.860	   3.535
   60	  0.5200	  0.7000	   5.961	   3.595
   61	  0.5200	  0.7000	   6.061	   3.655
   62	  0.5000	  0.7000	   6.160	   3.715
   63	  0.5000	  0.7000	   6.260	   3.775
   64	  0.5000	  0.7000	   6.361	   3.835
   65	  0.5000	  0.7000	   6.461	   3.895
   66	  0.5000	  0.7000	   6.560	   3.955
   67	  0.5000	  0.7000	   6.662	   4.015
   68	  0.4800	  0.7000	   6.762	   4.075
   69	  0.4800	  0.7000	   6.864	   4.135
   70	  0.4800	  0.7000	   6.961	   4.195
   71	  0.4600	  0.7000	   7.064	   4.255
   72	  0.4600	  0.7000	   7.162	   4.315
   73	  0.4200	  0.7000	   7.262	   4.375
   74	  0.0600	  0.6960	   7.365	   4.435
   75	  0.0600	  0.6980	   7.464	   4.495
   76	  0.0600	  0.6980	   7.566	   4.555
   77	  0.0600	  0.6980	   7.666	   4.615
   78	  0.0600	  0.6980	   7.767	   4.675
   79	  0.0600	  0.6980	   7.866	   4.735
   80	  0.0600	  0.6980	   7.967	   4.795
   81	  0.0600	  0.6980	   8.068	   4.855
   82	  0.0600	  0.6980	   8.167	   4.915
   83	  0.0600	  0.6980	   8.269	   4.975
   84	  0.0600	  0.6980	   8.367	   5.035
   85	  0.0600	  0.6980	   8.469	   5.095
   86	  0.0600	  0.6980	   8.569	   5.155
   87	  0.0600	  0.6980	   8.670	   5.215
   88	  0.0600	  0.6980	   8.769	   5.275
   89	  0.0600	  0.7000	   8.870	   5.335
   90	  0.0600	  0.6980	   8.970	   5.395
   91	  0.0600	  0.6980	   9.069	   5.455
   92	  0.0600	  0.6980	   9.170	   5.515
   93	  0.0600	  0.7000	   9.270	   5.575
   94	  0.0600	  0.7000	   9.371	   5.635
   95	  0.0600	  0.7000	   9.470	   5.695
   96	  0.0600	  0.6980	   9.571	   5.755
   97	  0.0600	  0.6980	   9.671	   5.815
   98	  0.0600	  0.6980	   9.770	   5.875
   99	  0.0600	  0.6980	   9.872	   5.935
  100	  0.0600	  0.6980	   9.971	   5.995
  101	  0.0600	  0.6980	  10.073	   6.055
  102	  0.0600	  0.6980	  10.172	   6.115
  103	  0.0600	  0.6980	  10.274	   6.175
  104	  0.0600	  0.6980	  10.374	   6.235
  105	  0.0600	  0.6980	  10.475	   6.295
  106	  0.0600	  0.6980	  10.574	   6.355
  107	  0.0600	  0.6980	  10.674	   6.415
  108	  0.0600	  0.6980	  10.775	   6.475
  109	  0.0600	  0.6980	  10.875	   6.535
  110	  0.0600	  0.6980	  10.976	   6.595
  111	  0.0600	  0.6980	  11.076	   6.655
  112	  0.0600	  0.6980	  11.177	   6.715
  113	  0.0600	  0.6980	  11.278	   6.775
  114	  0.0600	  0.6980	  11.379	   6.835
  115	  0.0600	  0.6980	  11.479	   6.895
  116	  0.0600	  0.6980	  11.579	   6.955
  117	  0.0600	  0.6980	  11.680	   7.015
  118	  0.0600	  0.6980	  11.780	   7.075
  119	  0.0600	  0.7000	  11.881	   7.135
ControlMode:	0
Rate:	100.0000
(null)
4
step	1
0
5.000000
0.000000
1
1
0.500000
2
step	2
1
5.000000
0.000000
1
1
2.000000
3
step	3
5
2.000000
0.000000
1
0
30
4
step	4
8
0.000000
0.000000
0
0
0.000000
0
2